Frequency Spectrum for Input Signal

Data Shown:    V2-3594 (Community)
Display Parameters:   Frequency: 1000Hz (1/24th Octave)   Mer: 270°  Par: 70°

Freq [Hz]	Signal Level [dBSPL]
22.4	72.5
23	72.8
23.6	73.1
24	73.5
25	73.9
25.8	74.3
26.5	74.6
27.2	75
28	75.3
29	75.6
30	75.9
30.7	76.4
31.5	76.8
32.5	77.2
33.5	77.5
34.5	77.9
35.5	78.2
36.5	78.7
37.5	79.2
38.7	79.6
40	80
41.2	80.4
42.5	80.9
43.7	81.4
45	81.8
46.2	82.2
47.5	82.6
48.7	83.1
50	83.6
51.5	84.1
53	84.5
54.5	85
56	85.5
58	85.9
60	86.4
61.5	86.9
63	87.4
65	87.9
67	88.4
69	88.9
71	89.3
73	89.9
75	90.4
77.5	90.9
80	91.5
82.5	91.9
85	92.5
87.5	93.1
90	93.6
92.5	94.1
95	94.6
97.5	95
100	95.4
103	95.7
106	96
109	96.1
112	96.2
115	96.2
118	96.1
122	96
125	95.9
128	95.7
132	95.4
136	95.1
140	94.7
145	94.3
150	93.8
155	93.2
160	92.4
165	91.4
170	90.3
175	89
180	87.5
185	85.8
190	84.6
195	84.7
200	86.1
206	88.3
212	90.3
218	91.6
224	92.4
230	92.9
236	93.1
240	93.1
250	92.8
258	92.3
265	91.6
272	90.7
280	89.7
290	88.9
300	88.7
307	89.2
315	89.9
325	90.6
335	91.2
345	91.5
355	91.7
365	91.8
375	91.7
387	91.7
400	91.4
412	90.8
425	90.2
437	89.8
450	89.6
462	89.5
475	89.2
487	88.6
500	88.1
515	88.2
530	88.4
545	89.2
560	89.9
580	89.9
600	89
615	87.1
630	83.9
650	78.6
670	70.2
690	72.4
710	76.7
730	79.3
750	81.5
775	83
800	83.8
825	84.3
850	84.7
875	85.2
900	85.4
925	85.5
950	86
975	86.3
1000	86.1
1030	85.1
1060	83.7
1090	82.8
1120	82
1150	80.6
1180	79.5
1220	78.8
1250	79
1280	80.1
1320	81.8
1360	82
1400	80.8
1450	81
1500	83.3
1550	84.8
1600	84.9
1650	84.3
1700	83.2
1750	82.2
1800	79.6
1850	78.7
1900	78.6
1950	78.3
2000	79.4
2060	80.4
2120	81.5
2180	82.5
2240	82.4
2300	81.4
2360	81
2400	80.7
2500	79.2
2580	75.9
2650	75
2720	76.7
2800	79.1
2900	78.4
3000	76.2
3070	76.3
3150	77.6
3250	76.1
3350	81.6
3450	83
3550	75
3650	74.7
3750	76.6
3870	71.8
4000	67.7
4120	70.5
4250	74.7
4370	77.9
4500	79.3
4620	78.8
4750	76.9
4870	74.4
5000	74.1
5150	76.5
5300	75.6
5450	75.6
5600	78.3
5800	78.3
6000	65.9
6150	71.9
6300	77.6
6500	77.6
6700	77.8
6900	79.9
7100	78.1
7300	73.4
7500	72.5
7750	70.3
8000	74.3
8250	71.5
8500	75.9
8750	81.4
9000	80.2
9250	76.1
9500	71.6
9750	62.6
10000	73.5
10300	69.1
10600	77
10900	74.5
11200	77
11500	75.6
11800	69.2
12200	75.6
12500	79.5
12800	78.3
13200	70.9
13600	60.6
14000	62
14500	65.5
15000	76.9
15500	77.7
16000	73.7
16500	68.6
17000	73
17500	70.8
18000	68
18500	52.6
19000	68
19500	65.1
20000	57
20600	53.3
21200	59.9
21800	55.4
22400	64.9
